#Wave		#Intensity
3550.429688	15549.226563
3549.198242	15424.930664
3547.965820	15433.863281
3546.733398	15550.738281
3545.500977	15645.162109
3544.268555	15619.425781
3543.035156	15673.082031
3541.801758	15490.649414
3540.568359	15627.725586
3539.333984	15683.374023
3538.099609	15547.827148
3536.865234	15642.097656
3535.630859	15439.530273
3534.395508	15476.873047
3533.160156	15573.125000
3531.924805	15661.208008
3530.689453	15546.140625
3529.453125	15530.623047
3528.216797	15657.228516
3526.980469	15499.604492
3525.743164	15613.981445
3524.505859	15551.791016
3523.268555	15712.759766
3522.031250	15790.506836
3520.792969	15768.866211
3519.555664	15842.509766
3518.316406	15547.250977
3517.078125	15886.355469
3515.838867	15625.650391
3514.599609	15855.214844
3513.360352	15655.375000
3512.121094	15504.209961
3510.880859	15593.980469
3509.640625	15728.232422
3508.399414	15955.495117
3507.159180	15836.753906
3505.917969	16088.160156
3504.676758	15542.803711
3503.434570	15701.171875
3502.192383	15897.870117
3500.951172	15916.664063
3499.708008	15743.528320
3498.465820	15820.916992
3497.222656	15958.851563
3495.979492	15713.132813
3494.735352	16073.058594
3493.492188	16085.725586
3492.248047	16033.822266
3491.003906	16006.145508
3489.758789	16129.732422
3488.514648	15886.300781
3487.268555	15991.714844
3486.023438	15825.000977
3484.778320	15815.524414
3483.532227	15775.833008
3482.286133	15933.538086
3481.039063	16040.832031
3479.792969	16005.138672
3478.545898	15995.625000
3477.297852	16040.447266
3476.050781	16093.295898
3474.802734	16035.488281
3473.554688	16259.249023
3472.306641	16044.600586
3471.057617	15926.530273
3469.808594	16075.803711
3468.559570	16204.917969
3467.310547	16179.291992
3466.060547	16396.693359
3464.810547	16035.702148
3463.559570	16096.448242
3462.309570	16163.188477
3461.058594	16071.370117
3459.807617	16069.871094
3458.556641	16156.625000
3457.304688	16183.178711
3456.052734	16311.969727
3454.800781	16210.188477
3453.547852	16344.925781
3452.294922	16359.386719
3451.041992	16217.591797
3449.789063	16344.222656
3448.535156	16448.771484
3447.281250	16317.054688
3446.027344	16367.521484
3444.772461	16399.957031
3443.518555	16420.371094
3442.263672	16392.773438
3441.007813	16337.190430
3439.752930	16425.574219
3438.497070	16348.017578
3437.241211	16178.570313
3435.984375	16432.750000
3434.727539	16139.512695
3433.470703	16391.589844
3432.213867	16461.863281
3430.956055	16158.826172
3429.699219	16444.654297
3428.440430	16151.725586
3427.182617	16152.165039
3425.923828	16262.293945
3424.665039	16438.171875
3423.406250	16344.847656
3422.146484	16367.161133
3420.886719	16222.080078
3419.626953	16136.827148
3418.367188	16189.041992
3417.106445	16402.529297
3415.845703	16313.306641
3414.584961	16558.515625
3413.323242	16363.823242
3412.061523	16376.129883
3410.799805	16356.603516
3409.538086	16478.279297
3408.275391	16265.875977
3407.012695	16280.173828
3405.750000	16415.693359
3404.486328	16525.320313
3403.222656	16354.802734
3401.958984	16525.958984
3400.695313	16417.066406
3399.430664	16437.255859
3398.166016	16346.290039
3396.901367	16414.107422
3395.635742	16364.842773
3394.370117	16541.708984
3393.104492	16319.916992
3391.838867	16260.789063
3390.572266	16423.681641
3389.305664	16418.056641
3388.039063	16352.998047
3386.771484	16357.291992
3385.503906	16175.431641
3384.236328	16260.935547
3382.968750	16239.509766
3381.700195	16218.091797
3380.431641	16299.567383
3379.163086	16303.857422
3377.893555	16053.019531
3376.624023	16476.539063
3375.354492	16259.375977
3374.083984	16380.270508
3372.814453	16416.144531
3371.543945	16465.828125
3370.272461	16369.333008
3369.001953	16462.443359
3367.730469	16381.782227
3366.458008	16518.265625
3365.186523	16275.813477
3363.914063	16374.773438
3362.641602	16503.273438
3361.369141	16333.943359
3360.095703	16330.297852
3358.822266	16413.380859
3357.548828	16395.919922
3356.274414	16605.042969
3355.000000	16536.328125
3353.725586	16333.729492
3352.451172	16430.492188
3351.175781	16462.250000
3349.900391	16527.447266
3348.625000	16165.649414
3347.348633	16610.539063
3346.072266	16459.318359
3344.795898	16695.515625
3343.519531	16554.167969
3342.242188	16517.048828
3340.964844	16564.433594
3339.687500	16431.064453
3338.409180	16372.385742
3337.130859	16557.220703
3335.852539	16451.419922
3334.573242	16486.982422
3333.294922	16493.091797
3332.014648	16569.824219
3330.735352	16454.302734
3329.455078	16466.292969
3328.174805	16562.580078
3326.894531	16727.423828
3325.613281	16641.357422
3324.333008	16563.164063
3323.050781	16422.322266
3321.769531	16810.292969
3320.487305	16448.214844
3319.205078	16526.724609
3317.922852	16712.832031
3316.639648	16697.326172
3315.356445	16611.406250
3314.073242	16920.570313
3312.789063	16564.812500
3311.505859	16645.132813
3310.220703	16727.369141
3308.936523	16799.796875
3307.651367	16690.517578
3306.366211	16784.400391
3305.081055	16815.755859
3303.794922	16565.986328
3302.508789	16646.166016
3301.222656	16917.533203
3299.936523	16617.181641
3298.649414	16787.007813
3297.362305	16759.812500
3296.074219	16672.191406
3294.787109	16951.031250
3293.499023	16956.937500
3292.209961	16619.957031
3290.921875	16945.361328
3289.632813	16927.890625
3288.343750	17105.113281
3287.053711	16854.039063
3285.763672	16965.031250
3284.473633	17101.261719
3283.183594	17009.851563
3281.892578	16934.039063
3280.601563	16969.080078
3279.310547	16988.552734
3278.018555	17002.183594
3276.726563	16794.318359
3275.434570	16975.035156
3274.142578	16895.437500
3272.849609	16988.673828
3271.556641	17134.277344
3270.262695	17081.863281
3268.969727	17052.753906
3267.675781	17264.189453
3266.380859	17056.626953
3265.086914	17248.572266
3263.791992	17107.011719
3262.497070	17227.148438
3261.201172	17012.025391
3259.905273	17352.960938
3258.609375	17013.953125
3257.313477	17081.714844
3256.016602	17073.945313
3254.719727	17265.523438
3253.422852	17112.591797
3252.125000	17321.480469
3250.827148	17195.679688
3249.529297	17216.888672
3248.230469	16979.041016
3246.931641	17038.939453
3245.632813	17332.617188
3244.333984	17293.880859
3243.034180	17187.560547
3241.734375	17231.902344
3240.434570	17137.224609
3239.133789	17401.583984
3237.833008	17223.931641
3236.532227	17189.121094
3235.230469	17572.861328
3233.928711	17214.025391
3232.626953	17113.687500
3231.325195	17348.765625
3230.022461	17294.685547
3228.719727	17298.423828
3227.416016	17065.250000
3226.112305	17386.769531
3224.808594	17311.546875
3223.504883	17392.261719
3222.200195	17272.806641
3220.895508	17147.634766
3219.590820	17345.656250
3218.286133	17233.982422
3216.980469	17199.257813
3215.673828	17450.945313
3214.368164	17347.005859
3213.061523	17633.121094
3211.754883	17292.923828
3210.448242	17354.236328
3209.140625	17283.042969
3207.833008	17595.775391
3206.525391	17378.710938
3205.216797	17624.121094
3203.908203	17422.492188
3202.599609	17309.166016
3201.290039	17232.318359
3199.980469	17676.880859
3198.670898	17592.314453
3197.360352	17415.820313
3196.050781	17304.533203
3194.740234	17407.781250
3193.428711	17434.394531
3192.117188	17564.359375
3190.805664	17470.357422
3189.494141	17343.869141
3188.181641	17169.617188
3186.869141	17643.746094
3185.556641	17111.966797
3184.243164	17480.753906
3182.929688	17511.107422
3181.616211	17522.339844
3180.302734	17627.164063
3178.988281	17296.517578
3177.673828	17242.869141
3176.358398	17422.125000
3175.042969	17574.578125
3173.727539	17118.314453
3172.412109	17234.521484
3171.095703	17217.175781
3169.779297	17407.658203
3168.462891	17409.339844
3167.145508	17241.404297
3165.828125	17376.490234
3164.510742	17439.126953
3163.192383	17362.707031
3161.874023	17469.105469
3160.555664	17506.925781
3159.236328	17316.351563
3157.917969	17129.671875
3156.597656	17473.794922
3155.278320	17610.462891
3153.958008	17300.251953
3152.637695	17220.189453
3151.316406	17138.263672
3149.996094	17297.675781
3148.674805	17308.843750
3147.352539	17183.269531
3146.031250	17426.093750
3144.708984	17471.388672
3143.385742	17598.263672
3142.063477	17296.277344
3140.740234	17599.542969
3139.416016	17426.652344
3138.092773	17422.587891
3136.768555	17511.406250
3135.444336	17530.060547
3134.119141	17580.914063
3132.793945	17402.537109
3131.468750	17343.552734
3130.143555	17303.525391
3128.817383	17397.916016
3127.491211	17516.859375
3126.164063	17463.572266
3124.836914	17450.029297
3123.509766	17466.751953
3122.182617	17557.201172
3120.854492	17515.287109
3119.526367	17545.205078
3118.198242	17660.128906
3116.869141	17544.544922
3115.540039	17440.345703
3114.210938	17647.722656
3112.880859	17611.496094
3111.550781	17416.763672
3110.220703	17701.351563
3108.889648	17617.976563
3107.559570	17440.345703
3106.227539	17560.691406
3104.896484	17618.773438
3103.564453	17612.753906
3102.232422	17648.185547
3100.899414	17574.345703
3099.566406	17577.751953
3098.233398	17795.787109
3096.900391	17633.490234
3095.566406	17640.636719
3094.232422	17536.775391
3092.897461	17694.416016
3091.563477	17756.072266
3090.228516	17919.224609
3088.892578	17975.156250
3087.556641	17675.888672
3086.220703	17829.544922
3084.884766	17742.701172
3083.547852	17776.080078
3082.210938	17816.951172
3080.874023	17726.410156
3079.536133	17624.650391
3078.198242	17830.621094
3076.860352	17991.476563
3075.521484	17880.345703
3074.182617	18097.351563
3072.843750	17750.076172
3071.504883	17856.447266
3070.165039	17884.082031
3068.824219	18035.320313
3067.484375	17911.214844
3066.143555	17691.689453
3064.802734	17972.005859
3063.460938	17928.462891
3062.119141	17871.841797
3060.777344	18056.523438
3059.435547	17979.328125
3058.092773	18104.068359
3056.750000	18066.142578
3055.406250	18102.976563
3054.062500	17952.976563
3052.718750	17808.646484
3051.375000	17895.925781
3050.030273	17884.220703
3048.685547	17911.712891
3047.339844	18250.800781
3045.995117	17808.083984
3044.649414	18124.652344
3043.302734	18124.083984
3041.956055	18132.833984
3040.609375	18005.527344
3039.262695	18016.160156
3037.915039	17969.039063
3036.567383	18313.044922
3035.219727	17997.748047
3033.871094	18190.794922
3032.522461	18184.613281
3031.173828	18100.287109
3029.824219	17969.492188
3028.474609	18095.404297
3027.124023	18156.177734
3025.774414	18144.423828
3024.423828	18084.355469
3023.072266	18128.361328
3021.721680	18131.478516
3020.370117	18240.447266
3019.017578	18154.412109
3017.666016	18092.546875
3016.313477	18177.314453
3014.959961	18267.607422
3013.607422	18010.990234
3012.253906	18158.761719
3010.899414	18178.535156
3009.545898	18255.759766
3008.191406	18062.386719
3006.835938	18009.910156
3005.481445	18109.337891
3004.125977	18205.015625
3002.770508	18287.683594
3001.414063	18325.888672
3000.057617	18149.419922
2998.701172	18061.833984
2997.343750	18285.019531
2995.986328	18047.658203
2994.628906	18109.898438
2993.270508	18183.197266
2991.912109	18132.654297
2990.553711	18041.492188
2989.194336	18194.166016
2987.834961	18115.955078
2986.475586	18054.392578
2985.115234	18162.654297
2983.754883	18075.273438
2982.394531	18069.101563
2981.034180	18208.628906
2979.672852	18195.048828
2978.310547	18192.533203
2976.949219	18003.876953
2975.586914	18126.695313
2974.223633	18289.980469
2972.861328	18327.951172
2971.498047	18492.947266
2970.134766	18400.154297
2968.770508	18139.937500
2967.406250	18349.007813
2966.041992	18151.464844
2964.676758	18182.046875
2963.311523	18514.134766
2961.946289	18287.279297
2960.580078	18503.404297
2959.213867	18559.587891
2957.847656	18356.755859
2956.480469	18455.177734
2955.113281	18246.957031
2953.746094	18389.404297
2952.377930	18498.751953
2951.009766	18318.183594
2949.641602	18581.558594
2948.272461	18643.099609
2946.903320	18662.445313
2945.534180	18487.500000
2944.164063	18501.373047
2942.793945	18674.613281
2941.423828	18884.396484
2940.052734	18863.367188
2938.681641	18776.443359
2937.309570	18625.505859
2935.938477	18975.980469
2934.566406	18892.744141
2933.193359	18846.125000
2931.821289	19141.433594
2930.447266	18873.589844
2929.074219	18856.242188
2927.700195	19107.480469
2926.326172	18867.232422
2924.952148	18775.019531
2923.577148	18973.142578
2922.202148	18979.509766
2920.826172	19044.269531
2919.451172	18984.933594
2918.074219	18996.759766
2916.698242	18919.224609
2915.321289	19062.320313
2913.944336	19043.128906
2912.567383	18952.878906
2911.189453	19044.845703
2909.810547	18912.744141
2908.432617	18944.583984
2907.053711	19142.066406
2905.674805	19015.490234
2904.294922	19191.021484
2902.915039	19129.980469
2901.535156	19167.173828
2900.155273	19246.167969
2898.774414	19086.990234
2897.392578	19087.814453
2896.011719	19264.876953
2894.629883	19069.474609
2893.248047	19101.167969
2891.865234	19252.675781
2890.482422	19298.828125
2889.099609	19259.664063
2887.715820	19147.945313
2886.332031	19322.867188
2884.948242	19403.402344
2883.563477	19155.751953
2882.178711	19384.914063
2880.792969	19407.384766
2879.408203	19433.464844
2878.022461	19307.390625
2876.635742	19038.324219
2875.249023	19256.363281
2873.862305	19204.623047
2872.475586	19360.990234
2871.087891	19119.298828
2869.700195	19311.779297
2868.311523	19166.044922
2866.923828	18929.996094
2865.534180	19353.701172
2864.145508	19054.478516
2862.755859	19033.578125
2861.366211	19077.701172
2859.975586	18971.945313
2858.584961	19136.994141
2857.194336	19146.763672
2855.802734	19086.166016
2854.411133	19213.181641
2853.019531	19138.167969
2851.626953	19162.343750
2850.234375	19303.662109
2848.841797	19104.337891
2847.448242	19069.048828
2846.054688	18909.500000
2844.661133	19084.945313
2843.266602	18963.271484
2841.872070	18906.445313
2840.476563	18727.291016
2839.082031	18812.658203
2837.686523	18700.152344
2836.290039	18582.306641
2834.893555	18673.033203
2833.497070	18501.333984
2832.099609	18663.898438
2830.703125	18591.074219
2829.304688	18530.855469
2827.907227	18307.285156
2826.508789	18633.070313
2825.109375	18703.875000
2823.710938	18760.291016
2822.311523	18470.513672
2820.911133	18747.515625
2819.511719	18631.771484
2818.111328	18512.500000
2816.709961	18672.810547
2815.308594	18535.669922
2813.907227	18635.000000
2812.505859	18415.566406
2811.103516	18405.677734
2809.701172	18519.279297
2808.297852	18554.097656
2806.894531	18524.500000
2805.491211	18503.857422
2804.087891	18670.953125
2802.683594	18727.140625
2801.278320	18527.755859
2799.874023	18439.236328
2798.468750	18616.890625
2797.062500	18469.458984
2795.657227	18670.224609
2794.250977	18462.166016
2792.843750	18853.757813
2791.437500	18617.208984
2790.029297	18609.062500
2788.622070	18470.753906
2787.213867	18296.861328
2785.805664	18691.566406
2784.396484	18612.132813
2782.988281	18701.960938
2781.578125	18718.724609
2780.168945	18560.998047
2778.758789	18786.044922
2777.347656	18913.103516
2775.937500	18764.335938
2774.526367	18731.251953
2773.114258	18739.082031
2771.703125	18723.794922
2770.290039	18715.623047
2768.877930	18739.437500
2767.464844	18754.357422
2766.051758	18866.949219
2764.637695	18730.898438
2763.224609	18728.050781
2761.809570	18519.333984
2760.395508	18685.093750
2758.980469	18785.136719
2757.564453	18697.146484
2756.149414	18926.562500
2754.733398	18712.726563
2753.316406	18773.669922
2751.900391	18845.210938
2750.483398	18822.839844
2749.065430	18993.496094
2747.647461	18859.562500
2746.229492	18987.642578
2744.811523	19005.949219
2743.392578	19125.080078
2741.972656	19007.156250
2740.553711	18993.611328
2739.133789	18995.980469
2737.712891	18957.699219
2736.292969	18898.232422
2734.872070	19098.457031
2733.450195	18933.021484
2732.028320	19011.312500
2730.606445	19080.734375
2729.184570	19183.650391
2727.761719	18871.919922
2726.338867	18951.904297
2724.915039	19109.433594
2723.491211	19125.849609
2722.067383	18863.783203
2720.642578	18989.494141
2719.217773	19115.140625
2717.792969	19168.515625
2716.367188	19105.654297
2714.941406	19078.027344
2713.514648	19018.736328
2712.088867	18957.710938
2710.661133	18843.945313
2709.234375	18858.609375
2707.806641	19089.509766
2706.378906	19230.652344
2704.950195	18981.617188
2703.521484	18997.980469
2702.091797	19116.203125
2700.663086	19113.205078
2699.233398	19138.294922
2697.802734	19130.023438
2696.372070	19230.541016
2694.941406	19195.935547
2693.509766	19122.763672
2692.078125	19121.509766
2690.646484	19032.611328
2689.214844	19155.800781
2687.781250	19156.285156
2686.348633	18969.353516
2684.915039	19215.037109
2683.481445	19043.935547
2682.047852	19156.457031
2680.613281	19197.177734
2679.178711	19110.169922
2677.743164	19173.615234
2676.307617	19198.558594
2674.872070	19195.519531
2673.435547	19307.822266
2671.999023	19067.132813
2670.561523	19174.167969
2669.125000	19160.652344
2667.686523	19276.335938
2666.249023	19215.669922
2664.810547	19233.556641
2663.372070	19036.849609
2661.932617	19178.603516
2660.493164	19111.039063
2659.053711	19149.847656
2657.613281	19103.234375
2656.172852	19142.019531
2654.731445	19142.460938
2653.291016	18881.669922
2651.848633	19268.695313
2650.407227	19037.591797
2648.964844	19076.335938
2647.521484	19266.419922
2646.079102	19157.238281
2644.635742	19415.021484
2643.191406	19401.468750
2641.747070	19313.187500
2640.302734	19409.132813
2638.858398	19598.837891
2637.413086	19277.841797
2635.967773	19338.994141
2634.521484	19417.470703
2633.075195	19395.251953
2631.627930	19119.730469
2630.181641	19123.611328
2628.733398	19269.687500
2627.286133	19389.683594
2625.837891	19537.349609
2624.389648	19497.792969
2622.940430	19264.226563
2621.491211	19297.496094
2620.041992	19490.048828
2618.591797	19531.898438
2617.141602	19341.816406
2615.690430	19324.849609
2614.240234	19425.513672
2612.788086	19289.207031
2611.336914	19664.724609
2609.884766	19414.339844
2608.431641	19409.462891
2606.979492	19509.970703
2605.525391	19467.070313
2604.072266	19422.462891
2602.618164	19676.529297
2601.164063	19609.451172
2599.708984	19430.250000
2598.253906	19435.714844
2596.798828	19560.169922
2595.342773	19651.800781
2593.886719	19448.630859
2592.430664	19478.201172
2590.973633	19288.955078
2589.516602	19437.394531
2588.058594	19334.349609
2586.600586	19369.078125
2585.142578	19359.037109
2583.683594	19340.396484
2582.224609	19387.130859
2580.764648	19531.871094
2579.304688	19597.443359
2577.844727	19176.521484
2576.383789	19283.390625
2574.923828	19304.302734
2573.461914	19588.000000
2572.000000	19550.433594
2570.538086	19468.248047
2569.076172	19375.804688
2567.613281	19286.835938
2566.150391	19496.406250
2564.686523	19465.759766
2563.222656	19436.843750
2561.758789	19476.505859
2560.293945	19337.917969
2558.829102	19615.732422
2557.363281	19340.142578
2555.897461	19395.195313
2554.431641	19383.447266
2552.964844	19530.880859
2551.498047	19685.083984
2550.031250	19627.078125
2548.563477	19469.902344
2547.095703	19449.591797
2545.626953	19280.570313
2544.158203	19303.039063
2542.689453	19540.773438
2541.219727	19399.179688
2539.750000	19414.765625
2538.280273	19606.189453
2536.809570	19430.544922
2535.337891	19570.671875
2533.867188	19531.599609
2532.395508	19581.232422
2530.922852	19509.775391
2529.451172	19146.855469
2527.978516	19464.107422
2526.504883	19222.349609
2525.031250	19338.419922
2523.557617	19331.816406
2522.083008	19458.011719
2520.608398	19313.509766
2519.133789	19764.658203
2517.658203	19615.042969
2516.182617	19664.496094
2514.706055	19741.126953
2513.229492	19469.232422
2511.752930	19465.994141
2510.275391	19613.972656
2508.797852	19525.763672
2507.319336	19542.884766
2505.840820	19391.917969
2504.362305	19449.796875
2502.882813	19558.552734
2501.403320	19556.980469
2499.923828	19402.763672
2498.443359	19864.128906
2496.962891	19572.597656
2495.481445	19501.531250
2494.000000	19799.861328
2492.518555	19766.033203
2491.036133	19593.357422
2489.553711	19708.583984
2488.071289	19591.863281
2486.587891	19568.267578
2485.103516	19554.833984
2483.620117	19453.457031
2482.135742	19778.230469
2480.650391	19402.990234
2479.165039	19638.037109
2477.679688	19715.832031
2476.194336	19747.976563
2474.708008	19702.419922
2473.220703	19616.367188
2471.733398	19719.398438
2470.246094	19658.691406
2468.758789	19670.556641
2467.270508	19473.275391
2465.782227	19594.777344
2464.292969	19736.443359
2462.803711	19780.289063
2461.313477	19840.958984
2459.823242	19748.312500
2458.333008	19583.298828
2456.841797	19578.306641
2455.350586	19840.935547
2453.859375	19864.482422
2452.367188	19674.365234
2450.875000	19682.802734
2449.381836	19724.863281
2447.888672	19682.847656
2446.395508	19780.341797
2444.901367	19807.216797
2443.407227	19805.521484
2441.912109	19701.388672
2440.417969	19837.382813
2438.921875	19845.746094
2437.425781	19907.798828
2435.929688	19748.378906
2434.433594	19750.042969
2432.936523	19791.947266
2431.439453	19693.017578
2429.941406	19867.302734
2428.443359	19770.078125
2426.944336	19775.076172
2425.446289	19721.458984
2423.946289	19704.697266
2422.447266	19713.048828
2420.947266	19483.789063
2419.446289	19888.656250
2417.945313	19786.568359
2416.444336	19642.730469
2414.942383	19719.613281
2413.440430	19636.023438
2411.938477	19505.695313
2410.435547	19747.906250
2408.932617	19772.910156
2407.429688	19906.412109
2405.925781	19592.548828
2404.420898	19759.396484
2402.916016	19829.402344
2401.411133	19834.330078
2399.906250	19615.835938
2398.400391	19640.814453
2396.893555	19580.789063
2395.387695	19557.445313
2393.880859	19680.683594
2392.373047	19817.179688
2390.865234	19875.359375
2389.357422	20109.925781
2387.848633	19813.587891
2386.339844	19850.093750
2384.830078	19678.699219
2383.320313	19740.156250
2381.810547	19844.796875
2380.299805	19771.574219
2378.789063	19902.728516
2377.278320	19738.175781
2375.766602	19905.798828
2374.254883	19515.556641
2372.742188	19796.003906
2371.229492	19953.521484
2369.715820	19840.578125
2368.203125	19807.291016
2366.688477	19906.652344
2365.174805	19618.107422
2363.660156	19879.855469
2362.144531	19631.222656
2360.628906	19838.173828
2359.113281	19816.517578
2357.596680	20155.740234
2356.080078	19761.648438
2354.563477	19922.019531
2353.045898	19839.154297
2351.528320	19842.322266
2350.009766	19837.218750
2348.491211	19880.046875
2346.971680	19894.761719
2345.452148	19778.962891
2343.932617	19851.496094
2342.413086	19915.734375
2340.891602	19735.636719
2339.371094	19851.025391
2337.849609	19806.320313
2336.328125	19972.759766
2334.805664	19687.289063
2333.283203	20031.714844
2331.760742	19720.001953
2330.237305	20029.636719
2328.712891	20042.597656
2327.189453	20070.371094
2325.665039	19857.748047
2324.139648	19597.498047
2322.614258	19906.755859
2321.088867	19710.785156
2319.562500	19886.626953
2318.036133	19942.339844
2316.509766	19909.251953
2314.982422	19978.074219
2313.455078	19871.052734
2311.926758	19581.753906
2310.398438	19742.564453
2308.869141	19704.636719
2307.339844	19748.792969
2305.810547	20017.732422
2304.280273	19891.167969
2302.750000	20089.406250
2301.218750	19846.468750
2299.688477	19864.294922
2298.156250	19942.746094
2296.624023	19641.046875
2295.091797	19730.978516
2293.559570	20027.189453
2292.026367	19923.789063
2290.492188	19676.412109
2288.958984	19970.767578
2287.423828	19788.933594
2285.889648	19700.414063
2284.354492	19657.716797
2282.818359	19945.226563
2281.283203	19877.972656
2279.746094	19982.294922
2278.209961	19864.429688
2276.672852	19859.292969
2275.134766	19837.832031
2273.596680	19827.804688
2272.058594	19626.880859
2270.519531	19680.527344
2268.980469	19737.404297
2267.441406	19748.601563
2265.901367	19772.830078
2264.361328	19808.451172
2262.820313	19904.328125
2261.279297	19931.750000
2259.737305	19763.763672
2258.195313	19827.015625
2256.653320	20020.425781
2255.110352	19956.669922
2253.567383	19717.273438
2252.024414	19793.474609
2250.480469	20007.820313
2248.935547	19729.585938
2247.390625	19973.080078
2245.845703	19836.322266
2244.300781	19743.484375
2242.754883	19761.097656
2241.208008	19798.177734
2239.661133	19841.728516
2238.114258	19825.228516
2236.566406	19897.939453
2235.018555	19936.560547
2233.470703	20030.277344
2231.921875	19809.531250
2230.373047	19676.392578
2228.823242	19922.363281
2227.273438	20038.650391
2225.722656	19994.593750
2224.171875	19924.662109
2222.621094	19916.253906
2221.069336	20163.451172
2219.517578	20036.917969
2217.964844	20131.964844
2216.412109	19835.771484
2214.859375	20158.679688
2213.305664	19901.406250
2211.751953	19944.693359
2210.197266	19897.527344
2208.642578	19837.468750
2207.086914	19737.091797
2205.531250	19985.289063
2203.975586	19854.273438
2202.418945	19889.429688
2200.862305	20182.533203
2199.305664	19983.863281
2197.748047	20052.794922
2196.189453	20120.078125
2194.630859	19905.466797
2193.072266	19914.783203
2191.512695	19977.212891
2189.953125	19959.142578
2188.393555	20258.039063
2186.833008	20138.564453
2185.272461	20070.609375
2183.710938	20044.488281
2182.149414	20208.033203
2180.586914	20196.347656
2179.024414	20123.621094
2177.461914	20075.021484
2175.898438	20056.951172
2174.334961	20167.300781
2172.770508	20121.931641
2171.206055	20110.273438
2169.641602	20404.968750
2168.076172	20226.476563
2166.509766	19966.318359
2164.944336	20249.595703
2163.377930	20116.140625
2161.810547	20301.517578
2160.243164	20397.115234
2158.675781	19933.917969
2157.107422	20439.304688
2155.538086	20251.560547
2153.969727	20047.914063
2152.400391	20106.660156
2150.830078	20160.576172
2149.259766	20017.849609
2147.689453	20204.398438
2146.118164	20317.355469
2144.546875	20454.210938
2142.974609	20134.300781
2141.402344	20036.457031
