#Wave		#Intensity
3550.434570	72158.984375
3549.202148	72095.820313
3547.970703	72104.882813
3546.738281	71755.460938
3545.505859	72216.640625
3544.272461	71806.257813
3543.039063	71996.500000
3541.805664	72335.203125
3540.572266	71861.960938
3539.338867	71885.242188
3538.104492	71680.726563
3536.870117	72214.375000
3535.634766	71676.476563
3534.400391	71835.914063
3533.165039	71434.453125
3531.929688	71549.164063
3530.693359	71651.640625
3529.458008	71784.515625
3528.221680	71921.390625
3526.984375	71520.296875
3525.748047	72038.671875
3524.510742	71505.828125
3523.273438	71867.781250
3522.036133	72111.937500
3520.797852	71962.617188
3519.559570	72028.234375
3518.321289	71996.539063
3517.083008	72023.609375
3515.843750	71740.695313
3514.604492	72106.039063
3513.365234	72205.945313
3512.125000	72479.906250
3510.884766	72446.078125
3509.644531	72383.921875
3508.404297	72805.351563
3507.163086	72919.117188
3505.921875	72820.468750
3504.680664	72034.390625
3503.439453	72229.085938
3502.197266	72769.289063
3500.955078	72838.445313
3499.712891	71978.265625
3498.469727	72475.734375
3497.227539	72625.656250
3495.983398	72565.539063
3494.740234	73042.351563
3493.496094	72681.460938
3492.252930	72980.476563
3491.007813	73017.125000
3489.763672	72973.085938
3488.518555	72505.625000
3487.273438	73028.148438
3486.028320	73113.093750
3484.782227	73349.109375
3483.536133	73458.109375
3482.290039	73099.773438
3481.043945	72838.242188
3479.796875	72778.140625
3478.549805	72875.054688
3477.302734	73702.398438
3476.055664	73485.195313
3474.807617	73310.320313
3473.559570	73030.937500
3472.310547	72996.960938
3471.062500	73218.281250
3469.813477	73250.578125
3468.564453	73489.812500
3467.314453	73501.937500
3466.064453	73367.429688
3464.814453	73138.601563
3463.564453	72982.132813
3462.314453	73030.453125
3461.063477	73130.914063
3459.812500	73371.757813
3458.560547	72992.703125
3457.308594	73357.789063
3456.057617	73205.437500
3454.804688	73540.234375
3453.552734	73754.632813
3452.299805	73427.953125
3451.046875	72917.125000
3449.792969	73293.718750
3448.540039	73844.335938
3447.286133	73275.664063
3446.032227	73443.757813
3444.777344	73163.554688
3443.522461	73659.671875
3442.267578	73445.523438
3441.012695	73419.429688
3439.756836	73557.281250
3438.500977	73868.953125
3437.245117	73513.039063
3435.989258	73247.171875
3434.732422	73255.070313
3433.475586	73382.773438
3432.218750	73364.664063
3430.960938	73538.187500
3429.703125	73272.570313
3428.445313	73771.250000
3427.187500	73028.906250
3425.928711	73280.101563
3424.669922	73505.250000
3423.411133	73008.640625
3422.151367	73618.398438
3420.891602	73123.960938
3419.631836	72836.914063
3418.372070	73344.703125
3417.111328	73067.679688
3415.850586	73310.390625
3414.589844	73417.640625
3413.328125	73506.914063
3412.066406	72993.312500
3410.804688	73050.796875
3409.542969	73050.585938
3408.280273	72217.289063
3407.017578	73014.351563
3405.754883	72477.531250
3404.491211	72819.164063
3403.227539	72354.117188
3401.963867	72697.593750
3400.700195	72729.171875
3399.435547	72881.820313
3398.170898	72494.546875
3396.906250	73030.132813
3395.640625	72468.398438
3394.375000	73497.609375
3393.109375	72275.679688
3391.843750	72317.148438
3390.577148	72933.414063
3389.310547	72982.632813
3388.042969	72774.265625
3386.776367	72504.578125
3385.508789	72769.695313
3384.241211	72298.164063
3382.972656	72539.437500
3381.705078	72636.132813
3380.436523	72879.187500
3379.166992	72599.898438
3377.898438	71901.445313
3376.628906	72520.156250
3375.359375	72828.226563
3374.088867	72280.375000
3372.818359	72272.187500
3371.547852	72030.890625
3370.277344	71920.046875
3369.005859	71884.281250
3367.734375	72083.453125
3366.462891	72130.546875
3365.191406	72400.593750
3363.918945	72279.882813
3362.646484	72019.179688
3361.373047	72354.125000
3360.100586	72022.531250
3358.827148	72140.484375
3357.553711	71836.656250
3356.279297	72135.843750
3355.004883	72328.523438
3353.730469	71904.703125
3352.456055	72150.492188
3351.180664	71719.007813
3349.905273	71789.562500
3348.629883	71946.640625
3347.353516	71950.210938
3346.077148	72646.046875
3344.800781	72283.718750
3343.524414	72365.820313
3342.247070	72422.320313
3340.969727	72189.945313
3339.691406	72415.398438
3338.414063	72002.414063
3337.135742	71685.828125
3335.857422	72148.765625
3334.578125	72095.273438
3333.298828	72289.054688
3332.019531	71774.515625
3330.740234	72466.460938
3329.459961	72344.289063
3328.179688	72165.304688
3326.899414	72350.968750
3325.618164	72405.250000
3324.336914	72240.062500
3323.055664	71867.312500
3321.774414	72258.468750
3320.492188	72257.867188
3319.209961	72247.468750
3317.927734	72289.906250
3316.644531	72072.093750
3315.361328	72040.195313
3314.078125	71998.539063
3312.793945	72396.812500
3311.509766	72421.531250
3310.225586	72520.500000
3308.941406	72533.445313
3307.656250	72765.164063
3306.371094	72533.898438
3305.085938	72755.734375
3303.799805	72959.898438
3302.513672	71990.968750
3301.227539	72210.804688
3299.940430	72424.671875
3298.654297	72351.734375
3297.367188	72508.914063
3296.079102	72225.421875
3294.791016	72480.000000
3293.502930	72884.492188
3292.214844	72460.812500
3290.926758	73241.031250
3289.637695	72649.976563
3288.347656	72471.921875
3287.058594	72029.226563
3285.768555	72252.250000
3284.478516	73047.156250
3283.188477	72822.453125
3281.897461	72926.500000
3280.606445	73166.578125
3279.315430	73179.125000
3278.023438	73271.328125
3276.731445	73037.078125
3275.439453	72686.382813
3274.147461	73120.406250
3272.854492	73356.187500
3271.561523	73886.898438
3270.267578	73730.359375
3268.974609	73356.585938
3267.679688	73671.593750
3266.385742	73117.617188
3265.091797	72868.296875
3263.796875	72983.515625
3262.500977	72885.492188
3261.206055	73326.156250
3259.910156	73880.898438
3258.614258	73565.796875
3257.318359	73037.843750
3256.021484	73230.250000
3254.724609	72973.554688
3253.427734	73452.242188
3252.129883	73483.835938
3250.832031	73455.453125
3249.534180	73686.171875
3248.235352	73622.945313
3246.936523	73542.335938
3245.637695	73600.882813
3244.338867	73327.117188
3243.039063	73302.625000
3241.739258	73063.789063
3240.438477	73525.843750
3239.138672	73665.343750
3237.837891	73438.148438
3236.537109	73160.890625
3235.235352	73830.765625
3233.933594	73416.617188
3232.631836	73949.234375
3231.329102	73857.109375
3230.027344	73244.734375
3228.723633	73229.867188
3227.420898	73247.734375
3226.117188	73026.804688
3224.813477	73281.500000
3223.509766	73482.171875
3222.205078	73948.304688
3220.900391	73611.953125
3219.595703	73679.671875
3218.290039	73656.968750
3216.985352	73230.523438
3215.678711	73175.242188
3214.373047	72912.437500
3213.066406	73356.765625
3211.759766	73457.054688
3210.453125	73474.710938
3209.145508	73058.453125
3207.837891	72909.179688
3206.529297	73425.875000
3205.221680	72718.265625
3203.913086	72787.828125
3202.604492	73020.351563
3201.294922	73256.585938
3199.985352	73601.968750
3198.675781	72948.757813
3197.365234	72769.070313
3196.055664	73068.328125
3194.744141	72725.898438
3193.433594	72506.156250
3192.122070	73080.890625
3190.810547	72549.210938
3189.499023	72765.867188
3188.186523	72752.875000
3186.874023	73334.632813
3185.561523	72485.968750
3184.248047	72624.039063
3182.934570	72781.140625
3181.621094	72756.656250
3180.307617	72928.914063
3178.993164	73062.898438
3177.678711	72431.187500
3176.363281	72320.867188
3175.047852	72317.468750
3173.732422	72348.406250
3172.416992	72335.453125
3171.100586	72450.265625
3169.784180	72557.390625
3168.467773	72334.687500
3167.150391	72439.875000
3165.833008	72316.359375
3164.515625	72210.039063
3163.197266	72583.679688
3161.878906	72542.070313
3160.560547	72420.523438
3159.241211	72026.875000
3157.921875	71920.703125
3156.602539	71871.648438
3155.283203	72100.257813
3153.962891	72247.000000
3152.642578	72348.046875
3151.321289	72200.078125
3150.000977	71803.273438
3148.679688	72365.921875
3147.357422	72426.929688
3146.036133	72381.578125
3144.713867	72279.289063
3143.390625	72387.703125
3142.068359	72084.320313
3140.745117	72169.945313
3139.420898	71995.710938
3138.097656	71810.164063
3136.773438	71986.757813
3135.449219	72021.125000
3134.124023	71892.523438
3132.798828	71978.031250
3131.473633	71527.531250
3130.148438	71639.570313
3128.822266	71039.812500
3127.496094	71411.164063
3126.168945	71856.132813
3124.841797	71954.710938
3123.514648	71833.867188
3122.187500	71697.953125
3120.859375	71429.765625
3119.531250	72063.148438
3118.203125	71806.328125
3116.874023	71950.070313
3115.544922	71940.773438
3114.215820	71748.328125
3112.885742	71708.867188
3111.555664	71895.875000
3110.225586	71816.757813
3108.894531	71818.773438
3107.563477	71575.632813
3106.232422	71662.531250
3104.901367	71313.960938
3103.569336	71623.250000
3102.237305	71855.132813
3100.904297	71412.554688
3099.571289	71719.695313
3098.238281	72045.507813
3096.905273	71708.585938
3095.571289	71674.789063
3094.237305	71936.390625
3092.902344	71763.359375
3091.568359	71490.726563
3090.233398	71784.125000
3088.897461	72192.031250
3087.561523	71885.640625
3086.225586	72208.781250
3084.889648	72242.492188
3083.552734	71735.343750
3082.215820	71975.656250
3080.878906	72138.890625
3079.541016	72469.054688
3078.203125	72148.039063
3076.865234	72431.132813
3075.526367	72586.570313
3074.187500	72321.976563
3072.848633	71742.609375
3071.509766	71757.531250
3070.169922	72407.546875
3068.829102	72276.195313
3067.489258	71708.585938
3066.148438	72097.906250
3064.807617	72372.851563
3063.465820	72299.617188
3062.124023	71958.875000
3060.782227	72070.914063
3059.440430	72012.734375
3058.097656	71694.710938
3056.754883	72363.687500
3055.411133	72666.093750
3054.067383	72434.062500
3052.723633	72140.492188
3051.379883	72298.929688
3050.035156	72167.929688
3048.690430	72376.664063
3047.344727	71924.750000
3046.000000	72111.046875
3044.654297	72424.062500
3043.307617	72185.000000
3041.960938	72274.140625
3040.614258	72318.500000
3039.267578	72185.820313
3037.919922	72379.187500
3036.572266	72546.382813
3035.224609	72162.351563
3033.875977	72245.742188
3032.527344	72241.609375
3031.178711	72269.101563
3029.829102	72116.132813
3028.479492	72396.554688
3027.128906	72249.187500
3025.779297	71843.507813
3024.428711	71982.523438
3023.077148	72101.031250
3021.726563	71558.195313
3020.375000	71719.445313
3019.022461	71685.664063
3017.670898	71607.335938
3016.318359	72050.515625
3014.964844	71771.750000
3013.612305	71619.250000
3012.258789	71592.906250
3010.904297	71759.390625
3009.550781	71640.335938
3008.196289	71534.304688
3006.841797	71519.093750
3005.486328	70938.953125
3004.130859	71675.710938
3002.775391	71201.312500
3001.418945	71532.289063
3000.062500	71554.070313
2998.706055	70656.367188
2997.348633	71342.335938
2995.991211	70997.992188
2994.633789	70968.085938
2993.275391	70550.046875
2991.916992	70886.117188
2990.558594	70486.757813
2989.199219	70879.921875
2987.839844	71295.046875
2986.480469	70415.882813
2985.120117	70947.179688
2983.760742	70531.640625
2982.399414	69963.179688
2981.039063	70538.437500
2979.677734	71002.789063
2978.315430	70418.007813
2976.954102	70032.539063
2975.591797	70726.968750
2974.228516	70577.382813
2972.866211	70499.687500
2971.502930	70508.562500
2970.139648	70489.804688
2968.775391	70603.554688
2967.411133	70588.453125
2966.046875	70297.437500
2964.681641	70521.468750
2963.316406	70743.546875
2961.951172	70588.695313
2960.584961	70505.585938
2959.218750	70334.320313
2957.852539	70504.765625
2956.485352	70856.921875
2955.118164	70740.750000
2953.750977	70455.765625
2952.382813	70556.257813
2951.014648	70522.773438
2949.646484	70837.781250
2948.277344	70272.460938
2946.908203	71265.664063
2945.539063	70618.023438
2944.168945	70571.695313
2942.798828	70616.984375
2941.428711	70741.000000
2940.057617	70747.757813
2938.686523	70637.343750
2937.315430	70737.445313
2935.943359	71126.593750
2934.571289	71149.679688
2933.198242	71053.882813
2931.826172	70919.718750
2930.453125	71107.343750
2929.079102	70803.257813
2927.705078	71270.343750
2926.331055	71644.031250
2924.957031	71529.945313
2923.582031	71437.812500
2922.207031	71466.187500
2920.832031	71118.617188
2919.456055	70647.148438
2918.080078	71467.273438
2916.703125	71298.640625
2915.326172	71314.218750
2913.949219	70870.460938
2912.572266	71232.343750
2911.194336	71594.031250
2909.816406	71194.226563
2908.437500	71455.585938
2907.058594	71465.593750
2905.679688	70622.000000
2904.299805	71165.328125
2902.920898	71115.343750
2901.540039	71287.250000
2900.160156	70879.054688
2898.779297	71485.382813
2897.398438	71206.343750
2896.016602	71358.054688
2894.634766	71822.117188
2893.252930	70931.171875
2891.870117	71638.390625
2890.487305	71552.023438
2889.104492	71538.289063
2887.720703	71402.992188
2886.336914	71710.328125
2884.953125	71716.492188
2883.568359	71398.117188
2882.183594	71670.773438
2880.798828	71238.390625
2879.413086	71016.359375
2878.027344	71283.453125
2876.640625	71195.500000
2875.254883	71666.968750
2873.867188	70820.609375
2872.480469	71449.351563
2871.092773	71156.992188
2869.705078	70942.539063
2868.317383	70777.007813
2866.928711	70701.929688
2865.540039	71011.820313
2864.150391	71442.609375
2862.760742	70951.937500
2861.371094	71675.078125
2859.980469	71233.320313
2858.589844	70865.781250
2857.199219	70509.234375
2855.807617	70719.367188
2854.416016	70386.468750
2853.024414	70459.460938
2851.632813	70680.242188
2850.240234	70947.773438
2848.846680	70701.609375
2847.453125	70653.718750
2846.059570	70373.507813
2844.666016	70437.351563
2843.271484	70016.906250
2841.876953	70730.500000
2840.482422	70450.515625
2839.086914	70096.906250
2837.691406	69795.617188
2836.294922	69613.132813
2834.898438	69432.531250
2833.501953	70217.070313
2832.105469	69619.562500
2830.708008	69622.289063
2829.309570	69576.515625
2827.912109	68835.953125
2826.513672	69034.492188
2825.115234	69310.093750
2823.715820	69232.117188
2822.316406	69240.273438
2820.916992	69167.718750
2819.516602	69417.882813
2818.116211	68777.156250
2816.714844	69147.335938
2815.314453	68607.289063
2813.913086	68622.703125
2812.510742	69048.132813
2811.108398	68825.335938
2809.706055	68853.195313
2808.303711	68707.468750
2806.900391	68966.078125
2805.496094	68516.375000
2804.092773	68556.765625
2802.688477	68833.070313
2801.284180	68426.593750
2799.878906	68438.367188
2798.473633	68644.820313
2797.068359	68633.304688
2795.662109	68669.992188
2794.255859	68587.070313
2792.849609	68734.375000
2791.442383	68371.382813
2790.035156	68582.851563
2788.626953	68425.117188
2787.218750	68673.890625
2785.810547	68635.609375
2784.402344	68526.062500
2782.993164	68206.367188
2781.583008	68226.968750
2780.173828	68137.171875
2778.763672	68050.968750
2777.353516	68929.312500
2775.942383	68821.593750
2774.531250	68671.234375
2773.120117	68241.757813
2771.708008	68082.703125
2770.295898	68156.562500
2768.882813	68615.968750
2767.469727	68220.648438
2766.056641	68131.000000
2764.643555	68843.968750
2763.229492	68404.484375
2761.815430	68536.679688
2760.400391	68821.382813
2758.985352	68309.484375
2757.570313	68870.750000
2756.154297	68619.703125
2754.738281	68372.320313
2753.322266	68172.898438
2751.905273	69040.109375
2750.488281	68489.906250
2749.070313	68752.757813
2747.653320	68169.242188
2746.234375	68623.179688
2744.816406	68813.234375
2743.397461	68734.296875
2741.978516	68591.718750
2740.558594	68804.601563
2739.138672	68571.906250
2737.718750	68305.742188
2736.297852	68237.593750
2734.876953	68874.265625
2733.456055	68670.007813
2732.034180	68469.382813
2730.612305	68777.195313
2729.189453	68387.804688
2727.766602	68330.273438
2726.343750	68512.648438
2724.919922	68345.773438
2723.496094	68127.851563
2722.072266	68544.523438
2720.647461	68405.937500
2719.222656	68101.820313
2717.797852	68502.320313
2716.372070	68340.937500
2714.946289	68223.632813
2713.520508	68247.171875
2712.093750	67825.554688
2710.666992	67729.554688
2709.239258	68131.265625
2707.811523	68036.984375
2706.383789	68146.625000
2704.955078	68029.531250
2703.526367	67915.992188
2702.097656	67690.101563
2700.667969	68149.125000
2699.238281	67540.578125
2697.807617	67841.445313
2696.377930	68026.343750
2694.946289	67709.453125
2693.515625	67683.835938
2692.083984	67966.804688
2690.651367	67802.640625
2689.219727	68162.531250
2687.787109	67332.632813
2686.353516	67727.476563
2684.920898	67610.789063
2683.486328	67291.078125
2682.052734	67158.796875
2680.618164	67651.250000
2679.183594	67567.914063
2677.748047	67596.539063
2676.312500	67480.015625
2674.876953	67389.773438
2673.440430	67738.218750
2672.003906	67651.429688
2670.567383	67735.859375
2669.129883	67175.851563
2667.692383	67178.289063
2666.253906	67384.937500
2664.815430	67270.390625
2663.376953	67262.312500
2661.937500	67400.742188
2660.498047	67417.039063
2659.058594	66992.273438
2657.618164	66665.304688
2656.177734	66951.820313
2654.737305	67117.992188
2653.295898	67155.203125
2651.854492	67042.648438
2650.412109	67372.273438
2648.969727	67110.054688
2647.527344	67460.359375
2646.083984	66933.851563
2644.640625	67057.953125
2643.197266	66851.679688
2641.752930	67172.125000
2640.308594	67024.992188
2638.863281	67147.179688
2637.417969	67291.882813
2635.972656	67193.421875
2634.526367	66343.367188
2633.080078	67369.750000
2631.633789	66776.843750
2630.186523	66789.593750
2628.739258	66694.820313
2627.291016	66667.695313
2625.842773	66767.109375
2624.394531	66975.632813
2622.946289	66828.906250
2621.497070	67293.625000
2620.046875	66776.328125
2618.596680	67176.765625
2617.146484	66777.429688
2615.696289	67496.015625
2614.245117	67167.710938
2612.793945	66682.187500
2611.341797	66572.078125
2609.889648	66795.617188
2608.437500	66998.304688
2606.984375	66749.968750
2605.531250	66627.835938
2604.077148	66935.726563
2602.624023	66547.742188
2601.168945	66653.546875
2599.714844	66369.343750
2598.259766	66212.929688
2596.803711	66541.195313
2595.348633	66652.039063
2593.892578	66307.765625
2592.435547	66473.750000
2590.978516	66345.039063
2589.521484	66478.187500
2588.063477	66385.687500
2586.605469	66121.070313
2585.147461	66068.273438
2583.688477	66571.281250
2582.229492	66069.406250
2580.770508	66348.570313
2579.310547	65895.132813
2577.850586	66014.320313
2576.389648	66018.304688
2574.928711	66008.539063
2573.467773	65892.273438
2572.005859	65801.820313
2570.543945	66197.250000
2569.081055	66041.531250
2567.618164	66098.656250
2566.155273	65342.605469
2564.691406	65847.492188
2563.227539	65487.953125
2561.763672	65529.703125
2560.298828	65814.781250
2558.833984	65703.929688
2557.368164	65862.054688
2555.903320	65593.695313
2554.436523	65587.398438
2552.970703	65488.671875
2551.503906	65699.710938
2550.036133	65272.531250
2548.568359	65170.523438
2547.100586	65342.132813
2545.632813	65255.527344
2544.164063	65649.187500
2542.694336	65099.515625
2541.225586	65074.507813
2539.754883	65266.386719
2538.285156	65149.148438
2536.814453	64738.386719
2535.343750	64643.507813
2533.872070	64630.558594
2532.400391	64847.855469
2530.928711	64990.015625
2529.456055	64523.527344
2527.983398	64856.554688
2526.509766	64359.656250
2525.037109	64508.578125
2523.562500	64500.750000
2522.088867	64230.734375
2520.614258	64651.890625
2519.138672	64586.156250
2517.663086	64959.363281
2516.187500	64490.484375
2514.710938	64208.878906
2513.234375	64459.484375
2511.757813	64390.449219
2510.280273	64470.964844
2508.802734	64150.550781
2507.325195	63916.906250
2505.846680	64017.832031
2504.368164	64358.023438
2502.888672	64728.582031
2501.409180	63991.148438
2499.928711	64091.925781
2498.449219	64316.425781
2496.967773	64144.136719
2495.487305	64149.875000
2494.005859	64192.878906
2492.524414	64093.566406
2491.041992	64344.847656
2489.559570	63994.964844
2488.076172	64037.941406
2486.592773	64272.101563
2485.109375	64274.367188
2483.625000	63867.332031
2482.140625	63839.253906
2480.656250	63615.089844
2479.170898	63600.593750
2477.685547	63837.851563
2476.199219	64254.035156
2474.712891	63788.476563
2473.226563	64049.125000
2471.739258	64144.218750
2470.251953	63775.210938
2468.763672	63971.535156
2467.275391	63698.882813
2465.787109	63731.558594
2464.297852	63843.437500
2462.808594	63576.062500
2461.319336	64009.722656
2459.829102	63821.601563
2458.338867	63763.234375
2456.847656	63509.593750
2455.356445	63629.738281
2453.864258	63857.511719
2452.373047	63403.832031
2450.879883	63769.441406
2449.387695	63536.273438
2447.894531	63520.062500
2446.400391	63534.109375
2444.907227	63237.312500
2443.413086	63746.925781
2441.917969	63440.136719
2440.422852	63010.945313
2438.927734	63310.402344
2437.431641	62961.992188
2435.935547	63016.371094
2434.438477	62975.121094
2432.941406	62821.542969
2431.444336	63001.621094
2429.946289	62727.441406
2428.448242	62413.183594
2426.950195	62918.160156
2425.451172	62712.851563
2423.952148	62472.484375
2422.452148	62556.933594
2420.952148	62810.339844
2419.452148	62237.214844
2417.951172	63032.425781
2416.450195	62451.164063
2414.948242	62214.539063
2413.446289	62634.792969
2411.944336	62181.035156
2410.441406	62133.386719
2408.938477	62680.226563
2407.434570	62288.558594
2405.930664	62277.617188
2404.426758	62018.058594
2402.921875	62072.238281
2401.416992	62111.375000
2399.911133	62232.187500
2398.405273	61917.871094
2396.899414	61918.671875
2395.392578	61909.468750
2393.885742	61846.968750
2392.378906	62022.609375
2390.871094	62053.324219
2389.362305	62601.621094
2387.854492	62099.710938
2386.344727	61651.289063
2384.835938	61750.226563
2383.326172	61854.093750
2381.816406	61999.460938
2380.305664	61272.320313
2378.794922	61326.375000
2377.283203	61290.707031
2375.772461	61993.964844
2374.259766	61328.968750
2372.748047	61064.281250
2371.235352	61335.644531
2369.721680	61343.121094
2368.208008	61501.492188
2366.694336	61288.402344
2365.179688	61257.742188
2363.665039	61202.238281
2362.150391	61173.257813
2360.634766	61160.851563
2359.119141	61062.343750
2357.602539	60727.164063
2356.085938	60944.902344
2354.568359	61265.101563
2353.050781	61467.687500
2351.533203	60780.492188
2350.015625	60731.796875
2348.496094	61139.296875
2346.977539	61035.996094
2345.458008	60770.843750
2343.938477	60902.195313
2342.417969	60657.019531
2340.897461	60382.250000
2339.376953	60508.632813
2337.855469	60788.378906
2336.333008	60322.437500
2334.811523	60339.886719
2333.289063	60540.308594
2331.765625	60516.476563
2330.242188	60138.394531
2328.718750	60226.679688
2327.194336	60473.015625
2325.669922	59998.078125
2324.145508	59952.988281
2322.620117	60107.035156
2321.094727	59708.218750
2319.568359	59538.218750
2318.041992	59721.832031
2316.514648	59713.011719
2314.987305	59985.222656
2313.459961	59931.960938
2311.931641	59339.941406
2310.403320	59881.343750
2308.875000	59471.867188
2307.345703	59799.566406
2305.816406	59958.074219
2304.286133	59675.199219
2302.755859	59561.390625
2301.224609	59944.457031
2299.693359	59289.675781
2298.162109	59321.894531
2296.629883	59236.125000
2295.097656	59333.851563
2293.564453	58861.648438
2292.031250	59182.058594
2290.498047	59225.691406
2288.963867	59428.011719
2287.429688	59090.394531
2285.894531	58806.914063
2284.359375	58664.183594
2282.824219	58680.078125
2281.288086	58756.425781
2279.751953	59154.570313
2278.214844	58654.179688
2276.677734	58235.687500
2275.140625	58757.710938
2273.602539	58846.964844
2272.064453	58131.773438
2270.525391	58496.808594
2268.986328	58118.007813
2267.447266	58593.710938
2265.907227	58586.699219
2264.366211	58643.234375
2262.826172	58564.519531
2261.285156	58138.933594
2259.743164	58319.273438
2258.201172	58185.339844
2256.659180	58523.421875
2255.116211	58317.910156
2253.573242	57982.371094
2252.029297	58021.011719
2250.485352	57960.460938
2248.941406	57804.042969
2247.396484	57932.058594
2245.851563	57949.535156
2244.305664	58208.980469
2242.759766	58015.292969
2241.213867	58217.761719
2239.666992	58105.304688
2238.120117	57837.152344
2236.572266	58015.164063
2235.024414	57977.417969
2233.475586	57831.074219
2231.927734	57663.726563
2230.377930	57762.187500
2228.829102	57475.070313
2227.278320	57605.906250
2225.728516	57284.964844
2224.177734	57794.519531
2222.626953	57732.593750
2221.075195	57227.433594
2219.523438	57539.273438
2217.970703	57807.292969
2216.417969	57228.132813
2214.864258	57568.804688
2213.311523	57529.621094
2211.756836	57563.132813
2210.203125	57087.964844
2208.648438	57888.394531
2207.092773	57264.894531
2205.537109	57608.218750
2203.981445	57693.261719
2202.424805	57641.175781
2200.868164	57303.738281
2199.310547	57211.476563
2197.752930	57178.875000
2196.195313	57325.113281
2194.636719	57954.449219
2193.078125	57361.320313
2191.518555	57455.867188
2189.958984	57537.484375
2188.399414	57456.554688
2186.838867	57441.605469
2185.277344	57326.960938
2183.716797	57498.535156
2182.155273	57178.191406
2180.592773	56967.277344
2179.030273	57472.933594
2177.467773	57396.945313
2175.904297	56752.613281
2174.340820	57418.429688
2172.776367	57159.554688
2171.211914	56908.835938
2169.646484	57282.164063
2168.081055	56888.816406
2166.515625	57056.750000
2164.949219	56888.031250
2163.382813	56704.976563
2161.816406	57024.984375
2160.249023	56979.699219
2158.680664	56673.468750
2157.113281	56706.714844
2155.543945	56944.761719
2153.975586	56697.953125
2152.406250	56823.914063
2150.835938	56478.125000
2149.265625	56500.164063
2147.695313	56752.308594
2146.124023	56657.625000
2144.552734	56507.082031
2142.980469	56776.578125
2141.408203	56586.160156
